# OGLE-IV V-band filter
# Asahi Spectra Co., Ltd
# measurements in 9 spots on the filter
#
#        1              2                 3             4         5         6         7         8         9        10        11        12              13         14
# wavelength[A]   mean_transmission  standard_dev     spot1     spot2     spot3     spot4     spot5     spot6     spot7     spot8     spot9          minimal    maximal 
#
      4003.61       0.004906          0.000880      0.004773  0.004773  0.004773  0.004773  0.004773  0.004773  0.004773  0.003580  0.007160         0.003580   0.007160
      4015.85       0.005471          0.000782      0.004689  0.005862  0.004689  0.005862  0.005862  0.005862  0.004689  0.004689  0.007034         0.004689   0.007034
      4028.09       0.003871          0.000548      0.003484  0.003484  0.004646  0.003484  0.003484  0.003484  0.003484  0.004646  0.004646         0.003484   0.004646
      4040.34       0.004709          0.001002      0.005727  0.005727  0.003436  0.005727  0.005727  0.004582  0.003436  0.003436  0.004582         0.003436   0.005727
      4052.58       0.003013          0.000753      0.002260  0.002260  0.002260  0.003390  0.003390  0.004520  0.003390  0.003390  0.002260         0.002260   0.004520
      4064.83       0.003810          0.000550      0.003319  0.003319  0.004425  0.004425  0.004425  0.003319  0.004425  0.003319  0.003319         0.003319   0.004425
      4077.08       0.002654          0.001038      0.003257  0.001086  0.002172  0.001086  0.004343  0.003257  0.003257  0.003257  0.002172         0.001086   0.004343
      4089.33       0.003783          0.000885      0.004255  0.005319  0.003191  0.004255  0.004255  0.002128  0.003191  0.004255  0.003191         0.002128   0.005319
      4101.58       0.003353          0.000818      0.002081  0.004162  0.004162  0.004162  0.003122  0.003122  0.003122  0.004162  0.002081         0.002081   0.004162
      4113.83       0.004747          0.000678      0.004069  0.005086  0.003052  0.005086  0.005086  0.005086  0.005086  0.005086  0.005086         0.003052   0.005086
      4126.09       0.004422          0.001251      0.002985  0.004975  0.001990  0.003980  0.005970  0.004975  0.005970  0.004975  0.003980         0.001990   0.005970
      4138.34       0.004152          0.000618      0.002950  0.004916  0.004916  0.004916  0.003933  0.003933  0.003933  0.003933  0.003933         0.002950   0.004916
      4150.60       0.003553          0.000457      0.002907  0.002907  0.003876  0.003876  0.003876  0.003876  0.003876  0.003876  0.002907         0.002907   0.003876
      4162.86       0.002863          0.000450      0.001908  0.002863  0.003817  0.002863  0.002863  0.002863  0.002863  0.002863  0.002863         0.001908   0.003817
      4175.12       0.003142          0.000444      0.003770  0.002828  0.002828  0.002828  0.003770  0.002828  0.002828  0.002828  0.003770         0.002828   0.003770
      4187.38       0.004835          0.000582      0.004630  0.004630  0.005556  0.004630  0.005556  0.004630  0.005556  0.004630  0.003704         0.003704   0.005556
      4199.64       0.002011          0.000569      0.001810  0.002715  0.000905  0.001810  0.002715  0.001810  0.001810  0.002715  0.001810         0.000905   0.002715
      4211.90       0.002960          0.000837      0.003552  0.002664  0.002664  0.002664  0.003552  0.003552  0.001776  0.004441  0.001776         0.001776   0.004441
      4224.17       0.003798          0.000826      0.002629  0.004382  0.002629  0.004382  0.004382  0.003506  0.005259  0.003506  0.003506         0.002629   0.005259
      4236.43       0.003296          0.000548      0.002618  0.003490  0.002618  0.003490  0.004363  0.003490  0.003490  0.003490  0.002618         0.002618   0.004363
      4248.70       0.004953          0.000824      0.005245  0.004371  0.004371  0.006119  0.005245  0.006119  0.004371  0.005245  0.003497         0.003497   0.006119
      4260.97       0.004277          0.000496      0.004374  0.003500  0.004374  0.004374  0.003500  0.004374  0.004374  0.004374  0.005249         0.003500   0.005249
      4273.24       0.003788          0.000583      0.002622  0.004371  0.003497  0.004371  0.003497  0.004371  0.004371  0.003497  0.003497         0.002622   0.004371
      4285.51       0.002724          0.000645      0.001751  0.003503  0.002627  0.003503  0.003503  0.002627  0.001751  0.002627  0.002627         0.001751   0.003503
      4297.78       0.004206          0.000692      0.002641  0.005282  0.004401  0.004401  0.004401  0.004401  0.003521  0.004401  0.004401         0.002641   0.005282
      4310.05       0.004921          0.000440      0.004429  0.005314  0.004429  0.004429  0.005314  0.005314  0.005314  0.004429  0.005314         0.004429   0.005314
      4322.32       0.004775          0.000597      0.004476  0.005372  0.004476  0.005372  0.005372  0.004476  0.005372  0.004476  0.003581         0.003581   0.005372
      4334.60       0.005243          0.000570      0.004537  0.005445  0.004537  0.005445  0.006352  0.005445  0.005445  0.005445  0.004537         0.004537   0.006352
      4346.88       0.005525          0.001063      0.004604  0.004604  0.005525  0.005525  0.006446  0.006446  0.005525  0.007366  0.003683         0.003683   0.007366
      4359.16       0.005221          0.001181      0.005639  0.006579  0.004699  0.006579  0.006579  0.004699  0.004699  0.004699  0.002820         0.002820   0.006579
      4371.44       0.007740          0.000835      0.007634  0.006679  0.007634  0.007634  0.009542  0.008588  0.006679  0.007634  0.007634         0.006679   0.009542
      4383.72       0.007852          0.001065      0.007744  0.007744  0.006776  0.008712  0.009681  0.007744  0.007744  0.008712  0.005808         0.005808   0.009681
      4396.00       0.006400          0.000949      0.007944  0.006951  0.006951  0.006951  0.005958  0.004965  0.005958  0.006951  0.004965         0.004965   0.007944
      4408.28       0.007589          0.001281      0.006116  0.008155  0.007136  0.010194  0.009174  0.007136  0.007136  0.007136  0.006116         0.006116   0.010194
      4420.57       0.006812          0.000525      0.007400  0.006342  0.006342  0.007400  0.006342  0.007400  0.007400  0.006342  0.006342         0.006342   0.007400
      4432.85       0.008339          0.000918      0.007726  0.008830  0.007726  0.008830  0.008830  0.009934  0.006623  0.007726  0.008830         0.006623   0.009934
      4445.14       0.008065          0.000768      0.008065  0.006912  0.008065  0.009217  0.006912  0.008065  0.009217  0.008065  0.008065         0.006912   0.009217
      4457.43       0.010830          0.001135      0.010830  0.009627  0.009627  0.010830  0.010830  0.012034  0.009627  0.013237  0.010830         0.009627   0.013237
      4469.72       0.008967          0.001103      0.008827  0.010088  0.007566  0.010088  0.008827  0.007566  0.010088  0.010088  0.007566         0.007566   0.010088
      4482.01       0.010074          0.001073      0.010513  0.011827  0.009198  0.010513  0.010513  0.009198  0.010513  0.010513  0.007884         0.007884   0.011827
      4494.30       0.011688          0.000837      0.010653  0.011984  0.011984  0.011984  0.011984  0.011984  0.010653  0.013316  0.010653         0.010653   0.013316
      4506.59       0.010782          0.001100      0.009434  0.012129  0.009434  0.010782  0.012129  0.012129  0.010782  0.010782  0.009434         0.009434   0.012129
      4518.89       0.012633          0.001255      0.013699  0.012329  0.010959  0.013699  0.015069  0.010959  0.012329  0.012329  0.012329         0.010959   0.015069
      4531.18       0.014301          0.001042      0.014144  0.015559  0.015559  0.015559  0.014144  0.014144  0.014144  0.012730  0.012730         0.012730   0.015559
      4543.48       0.016186          0.001012      0.015175  0.015175  0.016692  0.015175  0.018209  0.015175  0.016692  0.016692  0.016692         0.015175   0.018209
      4555.78       0.016703          0.001684      0.016340  0.019608  0.016340  0.017974  0.016340  0.016340  0.013072  0.017974  0.016340         0.013072   0.019608
      4568.08       0.017361          0.001418      0.017361  0.015625  0.015625  0.019097  0.017361  0.019097  0.017361  0.019097  0.015625         0.015625   0.019097
      4580.38       0.021783          0.001978      0.021583  0.023381  0.025180  0.023381  0.019784  0.021583  0.021583  0.021583  0.017986         0.017986   0.025180
      4592.68       0.024074          0.001235      0.024074  0.024074  0.022222  0.022222  0.024074  0.024074  0.025926  0.025926  0.024074         0.022222   0.025926
      4604.99       0.022945          0.001803      0.022945  0.022945  0.019121  0.024857  0.024857  0.024857  0.021033  0.022945  0.022945         0.019121   0.024857
      4617.29       0.022614          0.001340      0.023483  0.021526  0.021526  0.023483  0.023483  0.021526  0.021526  0.025440  0.021526         0.021526   0.025440
      4629.60       0.026508          0.001874      0.025845  0.027833  0.023857  0.029821  0.023857  0.025845  0.027833  0.027833  0.025845         0.023857   0.029821
      4641.91       0.029275          0.001331      0.027944  0.029940  0.029940  0.029940  0.027944  0.027944  0.027944  0.029940  0.031936         0.027944   0.031936
      4654.21       0.025641          0.002337      0.024292  0.028340  0.022267  0.028340  0.024292  0.026316  0.022267  0.028340  0.026316         0.022267   0.028340
      4666.52       0.025814          0.001851      0.028283  0.026263  0.026263  0.026263  0.022222  0.028283  0.024242  0.026263  0.024242         0.022222   0.028283
      4678.84       0.028331          0.001825      0.025896  0.029881  0.027888  0.027888  0.025896  0.027888  0.031873  0.029881  0.027888         0.025896   0.031873
      4691.15       0.029586          0.001610      0.029586  0.027613  0.027613  0.029586  0.031558  0.031558  0.029586  0.031558  0.027613         0.027613   0.031558
      4703.46       0.033531          0.001315      0.031558  0.033531  0.031558  0.033531  0.035503  0.035503  0.033531  0.033531  0.033531         0.031558   0.035503
      4715.78       0.036585          0.001660      0.038618  0.038618  0.034553  0.036585  0.038618  0.034553  0.034553  0.036585  0.036585         0.034553   0.038618
      4728.09       0.036879          0.001737      0.034043  0.038298  0.034043  0.036170  0.038298  0.038298  0.036170  0.038298  0.038298         0.034043   0.038298
      4740.41       0.040650          0.001045      0.039911  0.039911  0.039911  0.039911  0.042129  0.039911  0.042129  0.042129  0.039911         0.039911   0.042129
      4752.73       0.041924          0.002300      0.041667  0.041667  0.041667  0.043981  0.043981  0.043981  0.037037  0.043981  0.039352         0.037037   0.043981
      4765.05       0.052241          0.001759      0.050119  0.052506  0.052506  0.054893  0.052506  0.052506  0.050119  0.054893  0.050119         0.050119   0.054893
      4777.37       0.055138          0.003736      0.055138  0.057644  0.052632  0.060150  0.050125  0.060150  0.050125  0.057644  0.052632         0.050125   0.060150
      4789.70       0.060068          0.003589      0.055838  0.063452  0.055838  0.063452  0.058376  0.060914  0.060914  0.065990  0.055838         0.055838   0.065990
      4802.02       0.068587          0.005044      0.061728  0.071605  0.064197  0.076543  0.066667  0.071605  0.069136  0.074074  0.061728         0.061728   0.076543
      4814.34       0.081307          0.005668      0.075294  0.084706  0.077647  0.091765  0.080000  0.084706  0.075294  0.087059  0.075294         0.075294   0.091765
      4826.67       0.087984          0.009202      0.081448  0.099548  0.076923  0.101810  0.088235  0.092760  0.079186  0.095023  0.076923         0.076923   0.101810
      4839.00       0.105495          0.010965      0.094506  0.112088  0.096703  0.127473  0.101099  0.105495  0.098901  0.118681  0.094506         0.094506   0.127473
      4851.33       0.137013          0.015959      0.124183  0.150327  0.117647  0.163399  0.132898  0.141612  0.128540  0.156863  0.117647         0.117647   0.163399
      4863.66       0.180135          0.027790      0.155844  0.201299  0.153680  0.227273  0.168831  0.190476  0.158009  0.216450  0.149351         0.149351   0.227273
      4875.99       0.253525          0.045001      0.210753  0.290323  0.208602  0.329032  0.232258  0.277419  0.219355  0.307527  0.206452         0.206452   0.329032
      4888.32       0.366013          0.062868      0.304622  0.418067  0.302521  0.464286  0.340336  0.403361  0.319328  0.445378  0.296218         0.296218   0.464286
      4900.66       0.518295          0.073795      0.441767  0.576305  0.441767  0.632530  0.493976  0.562249  0.469880  0.612450  0.433735         0.433735   0.632530
      4912.99       0.668955          0.065295      0.602996  0.713483  0.599251  0.767790  0.646067  0.711610  0.631086  0.756554  0.591760         0.591760   0.767790
      4925.33       0.786325          0.045078      0.734266  0.814685  0.736014  0.854895  0.776224  0.812937  0.762238  0.847902  0.737762         0.734266   0.854895
      4937.67       0.852221          0.025601      0.820896  0.855721  0.820896  0.888889  0.852405  0.860697  0.847430  0.895522  0.827529         0.820896   0.895522
      4950.01       0.877671          0.014938      0.860577  0.863782  0.862179  0.899038  0.879808  0.873397  0.881410  0.905449  0.873397         0.860577   0.905449
      4962.35       0.881563          0.015401      0.866562  0.861852  0.866562  0.896389  0.886970  0.871272  0.891680  0.910518  0.882261         0.861852   0.910518
      4974.69       0.884281          0.016369      0.863287  0.867896  0.869432  0.903226  0.886329  0.878648  0.894009  0.915515  0.880184         0.863287   0.915515
      4987.03       0.897309          0.016523      0.875186  0.884101  0.881129  0.915305  0.900446  0.894502  0.904903  0.930163  0.890045         0.875186   0.930163
      4999.38       0.912472          0.014544      0.891738  0.903134  0.897436  0.928775  0.914530  0.911681  0.920228  0.940171  0.904558         0.891738   0.940171
      5011.72       0.929252          0.009491      0.914286  0.923810  0.919728  0.940136  0.930612  0.929252  0.933333  0.946939  0.925170         0.914286   0.946939
      5024.07       0.943941          0.006098      0.931436  0.940492  0.939198  0.952135  0.945666  0.945666  0.945666  0.952135  0.943079         0.931436   0.952135
      5036.42       0.948854          0.003329      0.942613  0.945055  0.947497  0.953602  0.951160  0.949939  0.947497  0.949939  0.952381         0.942613   0.953602
      5048.77       0.954990          0.002343      0.953704  0.953704  0.954861  0.954861  0.956019  0.954861  0.951389  0.954861  0.960648         0.951389   0.960648
      5061.12       0.957527          0.002354      0.957284  0.957284  0.958379  0.958379  0.958379  0.956188  0.955093  0.953998  0.962760         0.953998   0.962760
      5073.47       0.960450          0.002170      0.962422  0.959290  0.962422  0.960334  0.960334  0.959290  0.957203  0.958246  0.964509         0.957203   0.964509
      5085.83       0.962227          0.002247      0.963221  0.961233  0.964215  0.961233  0.962227  0.961233  0.960239  0.959245  0.967197         0.959245   0.967197
      5098.18       0.962264          0.002983      0.965094  0.963208  0.965094  0.960377  0.962264  0.961321  0.958491  0.957547  0.966981         0.957547   0.966981
      5110.54       0.959389          0.003399      0.961573  0.959786  0.964254  0.956211  0.957998  0.959786  0.957105  0.953530  0.964254         0.953530   0.964254
      5122.89       0.956007          0.003825      0.958545  0.957699  0.960237  0.950931  0.956007  0.956853  0.953469  0.949239  0.961083         0.949239   0.961083
      5135.25       0.952700          0.004033      0.955823  0.954217  0.955823  0.950201  0.952610  0.953414  0.947791  0.945382  0.959036         0.945382   0.959036
      5147.61       0.949580          0.003962      0.953400  0.951872  0.952636  0.950344  0.950344  0.948816  0.943468  0.941940  0.953400         0.941940   0.953400
      5159.97       0.946218          0.003513      0.949927  0.948476  0.947750  0.948476  0.946299  0.944122  0.939768  0.941219  0.949927         0.939768   0.949927
      5172.34       0.945212          0.003974      0.948204  0.948895  0.944061  0.950967  0.945442  0.940608  0.938536  0.941989  0.948204         0.938536   0.950967
      5184.70       0.945028          0.004314      0.947438  0.948095  0.942838  0.953351  0.945466  0.939553  0.938239  0.944152  0.946124         0.938239   0.953351
      5197.06       0.948927          0.005003      0.951845  0.953096  0.943715  0.958099  0.949969  0.942464  0.942464  0.950594  0.948093         0.942464   0.958099
      5209.43       0.954190          0.004796      0.955251  0.957637  0.949284  0.963007  0.954654  0.947494  0.948687  0.958234  0.953461         0.947494   0.963007
      5221.80       0.959498          0.004303      0.961209  0.962350  0.954934  0.966343  0.959498  0.952082  0.956075  0.964062  0.958928         0.952082   0.966343
      5234.17       0.965770          0.003279      0.966739  0.966739  0.962923  0.970556  0.967285  0.959106  0.964013  0.969466  0.965104         0.959106   0.970556
      5246.54       0.967915          0.002327      0.967742  0.967742  0.967222  0.969823  0.969303  0.962019  0.967742  0.970343  0.969303         0.962019   0.970343
      5258.91       0.970015          0.002367      0.970015  0.968016  0.971014  0.970015  0.971514  0.964518  0.972014  0.970015  0.973013         0.964518   0.973013
      5271.28       0.969823          0.002267      0.970250  0.967850  0.972649  0.968810  0.970250  0.965451  0.971209  0.968810  0.973129         0.965451   0.973129
      5283.65       0.968027          0.002428      0.968232  0.965930  0.971455  0.966390  0.969153  0.964549  0.969613  0.965470  0.971455         0.964549   0.971455
      5296.03       0.966269          0.002292      0.966416  0.964207  0.969510  0.965532  0.967742  0.964207  0.966858  0.962439  0.969510         0.962439   0.969510
      5308.41       0.966719          0.002021      0.966483  0.964786  0.969453  0.966907  0.967756  0.966483  0.965634  0.963089  0.969877         0.963089   0.969877
      5320.78       0.968455          0.002116      0.968546  0.967320  0.969771  0.970588  0.970180  0.967729  0.965686  0.964869  0.971405         0.964869   0.971405
      5333.16       0.970141          0.002350      0.970577  0.968223  0.972146  0.972931  0.971361  0.969792  0.967046  0.966261  0.972931         0.966261   0.972931
      5345.54       0.971207          0.002102      0.972505  0.969115  0.972128  0.972881  0.972128  0.970621  0.968362  0.968362  0.974765         0.968362   0.974765
      5357.92       0.971900          0.002086      0.973551  0.969203  0.972826  0.973913  0.972464  0.970290  0.969928  0.969565  0.975362         0.969203   0.975362
      5370.31       0.971048          0.002483      0.973454  0.967517  0.973105  0.972057  0.971359  0.968914  0.969612  0.968215  0.975201         0.967517   0.975201
      5382.69       0.969302          0.002198      0.971024  0.965633  0.971361  0.969340  0.969003  0.967318  0.968666  0.967992  0.973383         0.965633   0.973383
      5395.08       0.967493          0.001957      0.969341  0.964775  0.969993  0.966732  0.967710  0.965427  0.966732  0.966080  0.970646         0.964775   0.970646
      5407.46       0.966039          0.001474      0.966530  0.963688  0.967477  0.964951  0.966214  0.964951  0.965583  0.965898  0.969056         0.963688   0.969056
      5419.85       0.966806          0.001554      0.966128  0.965517  0.968264  0.965517  0.967348  0.966128  0.964602  0.967958  0.969789         0.964602   0.969789
      5432.24       0.967678          0.001503      0.966401  0.966401  0.969054  0.966696  0.968170  0.967580  0.965517  0.968759  0.970528         0.965517   0.970528
      5444.63       0.970116          0.001647      0.968526  0.968813  0.970815  0.969099  0.971102  0.970815  0.967382  0.971674  0.972818         0.967382   0.972818
      5457.02       0.972407          0.001771      0.970556  0.970833  0.973889  0.970833  0.973333  0.972778  0.970000  0.974444  0.975000         0.970000   0.975000
      5469.42       0.975075          0.002150      0.973243  0.971892  0.976486  0.972973  0.975946  0.975946  0.973243  0.977838  0.978108         0.971892   0.978108
      5481.81       0.976693          0.002441      0.975198  0.972559  0.978364  0.974670  0.977309  0.976253  0.975462  0.979683  0.980739         0.972559   0.980739
      5494.20       0.977634          0.002830      0.976516  0.972387  0.979613  0.975484  0.977290  0.976516  0.977806  0.980387  0.982710         0.972387   0.982710
      5506.60       0.976124          0.003166      0.976040  0.969735  0.978058  0.974023  0.975788  0.974023  0.977554  0.978310  0.981589         0.969735   0.981589
      5519.00       0.973930          0.003815      0.974068  0.965918  0.976537  0.971598  0.973080  0.971598  0.976784  0.975796  0.979995         0.965918   0.979995
      5531.40       0.970190          0.004202      0.970297  0.961603  0.973195  0.968124  0.968848  0.967399  0.973919  0.971263  0.977059         0.961603   0.977059
      5543.80       0.966806          0.004381      0.967384  0.957930  0.970220  0.965493  0.964547  0.963838  0.971402  0.966911  0.973529         0.957930   0.973529
      5556.20       0.962593          0.004287      0.962851  0.953796  0.966102  0.961922  0.959833  0.960297  0.967030  0.962387  0.969120         0.953796   0.969120
      5568.60       0.959711          0.004077      0.959509  0.951774  0.962693  0.960191  0.956324  0.957689  0.964513  0.958826  0.965878         0.951774   0.965878
      5581.01       0.957297          0.003705      0.956134  0.951236  0.959920  0.958584  0.952794  0.955466  0.961479  0.956802  0.963260         0.951236   0.963260
      5593.42       0.956527          0.003182      0.954754  0.952131  0.958251  0.959344  0.951694  0.955410  0.960000  0.956066  0.961093         0.951694   0.961093
      5605.82       0.957401          0.003014      0.954389  0.954604  0.958692  0.961059  0.952453  0.956325  0.959768  0.957616  0.961704         0.952453   0.961704
      5618.23       0.959001          0.002832      0.955485  0.958017  0.959494  0.963080  0.954219  0.958017  0.960127  0.959494  0.963080         0.954219   0.963080
      5630.64       0.961971          0.002621      0.958463  0.962201  0.962201  0.966563  0.957840  0.960540  0.962409  0.962617  0.964901         0.957840   0.966563
      5643.05       0.965086          0.002570      0.961924  0.966223  0.964995  0.969498  0.961515  0.962743  0.964585  0.966223  0.968066         0.961515   0.969498
      5655.46       0.968962          0.002442      0.966519  0.970553  0.968334  0.973175  0.966519  0.966115  0.967527  0.969746  0.972166         0.966115   0.973175
      5667.88       0.972019          0.002200      0.970478  0.973251  0.971468  0.976025  0.970478  0.968892  0.970279  0.972459  0.974837         0.968892   0.976025
      5680.29       0.974146          0.001927      0.973474  0.974839  0.973279  0.977180  0.973474  0.970743  0.972499  0.975034  0.976790         0.970743   0.977180
      5692.71       0.976206          0.001810      0.975971  0.976163  0.975394  0.978085  0.976355  0.972703  0.974625  0.977316  0.979239         0.972703   0.979239
      5705.12       0.977205          0.001753      0.977436  0.976678  0.976299  0.977816  0.977436  0.974213  0.975540  0.978764  0.980660         0.974213   0.980660
      5717.54       0.978119          0.001741      0.978285  0.976788  0.977537  0.976788  0.978660  0.976039  0.976975  0.980344  0.981655         0.976039   0.981655
      5729.96       0.978366          0.002170      0.977975  0.976495  0.978901  0.974459  0.978716  0.977420  0.978160  0.980751  0.982417         0.974459   0.982417
      5742.38       0.977118          0.003056      0.977281  0.975082  0.979113  0.970136  0.976915  0.976731  0.977831  0.979113  0.981861         0.970136   0.981861
      5754.81       0.974156          0.004976      0.974801  0.971900  0.978608  0.961929  0.973532  0.974619  0.976432  0.974982  0.980602         0.961929   0.980602
      5767.23       0.967797          0.007638      0.969975  0.964941  0.976088  0.949119  0.966739  0.968716  0.971773  0.966379  0.976447         0.949119   0.976447
      5779.65       0.954791          0.011572      0.959900  0.950454  0.968455  0.927820  0.953484  0.954375  0.961861  0.949207  0.967564         0.927820   0.968455
      5792.08       0.932276          0.017365      0.943206  0.924982  0.953645  0.894904  0.930998  0.927813  0.944091  0.919498  0.951345         0.894904   0.953645
      5804.51       0.894454          0.025727      0.915290  0.881195  0.926011  0.845167  0.893849  0.881722  0.912830  0.870475  0.923550         0.845167   0.926011
      5816.94       0.835958          0.036315      0.871414  0.813331  0.879461  0.774843  0.835549  0.811931  0.862316  0.797411  0.877362         0.774843   0.879461
      5829.37       0.753638          0.047410      0.805357  0.719429  0.808488  0.683597  0.754044  0.715603  0.788659  0.699948  0.807619         0.683597   0.808488
      5841.80       0.649946          0.056240      0.716193  0.604889  0.712899  0.575936  0.650312  0.599861  0.691574  0.584258  0.713592         0.575936   0.716193
      5854.23       0.533230          0.059497      0.607803  0.481788  0.598136  0.462282  0.532367  0.477300  0.577076  0.462800  0.599517         0.462282   0.607803
      5866.66       0.416126          0.056284      0.490098  0.364732  0.476149  0.353883  0.414672  0.361460  0.456690  0.349406  0.478044         0.349406   0.490098
      5879.10       0.310966          0.047945      0.376503  0.265544  0.360357  0.260907  0.309000  0.263483  0.344899  0.254380  0.363621         0.254380   0.376503
      5891.54       0.224569          0.037570      0.277644  0.187843  0.262706  0.186985  0.222356  0.187157  0.250343  0.180632  0.265453         0.180632   0.277644
      5903.97       0.159466          0.027350      0.198970  0.131845  0.186781  0.133047  0.157425  0.132017  0.177854  0.128069  0.189185         0.128069   0.198970
      5916.41       0.112984          0.019199      0.141187  0.093379  0.131900  0.094583  0.111264  0.093723  0.125537  0.091316  0.133964         0.091316   0.141187
      5928.85       0.080505          0.013143      0.100104  0.066966  0.093200  0.067829  0.079565  0.067484  0.088540  0.065758  0.095098         0.065758   0.100104
      5941.29       0.058206          0.009022      0.071639  0.048742  0.066782  0.049610  0.057415  0.049436  0.063834  0.048049  0.068344         0.048049   0.071639
      5953.74       0.043136          0.006251      0.052622  0.036417  0.048963  0.036766  0.042690  0.037289  0.047046  0.036417  0.050009         0.036417   0.052622
      5966.18       0.032706          0.004471      0.039271  0.028051  0.036992  0.028401  0.032609  0.028226  0.035238  0.027700  0.037868         0.027700   0.039271
      5978.63       0.025427          0.002989      0.029796  0.022214  0.028385  0.022214  0.025388  0.022567  0.026975  0.022391  0.028914         0.022214   0.029796
      5991.07       0.019836          0.002211      0.023248  0.017569  0.021828  0.017214  0.019876  0.017924  0.020941  0.017569  0.022360         0.017214   0.023248
      6003.52       0.016318          0.001753      0.018737  0.014454  0.018023  0.014454  0.016417  0.014989  0.017309  0.014097  0.018380         0.014097   0.018737
      6015.97       0.013276          0.001254      0.015249  0.012020  0.014173  0.011841  0.013455  0.012200  0.013994  0.011841  0.014711         0.011841   0.015249
      6028.42       0.011109          0.000959      0.012453  0.010287  0.011911  0.010107  0.011189  0.009926  0.011731  0.010107  0.012272         0.009926   0.012453
      6040.87       0.009709          0.000690      0.010696  0.009065  0.010152  0.009246  0.009790  0.009065  0.009971  0.008702  0.010696         0.008702   0.010696
      6053.32       0.008204          0.000637      0.009298  0.007657  0.008751  0.007657  0.008022  0.007840  0.008387  0.007293  0.008933         0.007293   0.009298
      6065.78       0.007382          0.000546      0.008236  0.007138  0.008053  0.006772  0.007321  0.006955  0.007504  0.006589  0.007870         0.006589   0.008236
      6078.23       0.006643          0.000382      0.006990  0.006255  0.006990  0.006255  0.006623  0.006439  0.006990  0.006071  0.007174         0.006071   0.007174
      6090.69       0.005990          0.000277      0.006462  0.005724  0.006278  0.005908  0.006093  0.005724  0.006093  0.005539  0.006093         0.005539   0.006462
      6103.15       0.005006          0.000290      0.005377  0.004821  0.005377  0.004636  0.005006  0.004821  0.005006  0.004636  0.005377         0.004636   0.005377
      6115.61       0.005324          0.000277      0.005758  0.005201  0.005201  0.005015  0.005572  0.005386  0.005386  0.004829  0.005572         0.004829   0.005758
      6128.07       0.004949          0.000234      0.005218  0.004473  0.005218  0.005032  0.005032  0.004659  0.005032  0.004845  0.005032         0.004473   0.005218
      6140.53       0.004679          0.000223      0.004844  0.004472  0.004844  0.004285  0.004658  0.004658  0.004844  0.004472  0.005031         0.004285   0.005031
      6152.99       0.004276          0.000163      0.004297  0.003923  0.004483  0.004297  0.004297  0.004110  0.004483  0.004297  0.004297         0.003923   0.004483
      6165.46       0.004098          0.000138      0.004306  0.004118  0.004306  0.004118  0.003931  0.003931  0.003931  0.004118  0.004118         0.003931   0.004306
      6177.92       0.003838          0.000236      0.004130  0.003942  0.003942  0.003754  0.003942  0.003567  0.003754  0.003379  0.004130         0.003379   0.004130
      6190.39       0.003742          0.000165      0.004139  0.003575  0.003763  0.003763  0.003763  0.003763  0.003763  0.003575  0.003575         0.003575   0.004139
      6202.86       0.003546          0.000195      0.003777  0.003588  0.003588  0.003399  0.003399  0.003211  0.003777  0.003399  0.003777         0.003211   0.003777
      6215.33       0.003264          0.000119      0.003032  0.003411  0.003411  0.003222  0.003411  0.003222  0.003222  0.003222  0.003222         0.003032   0.003411
      6227.80       0.003622          0.000156      0.003622  0.003622  0.003622  0.003431  0.004003  0.003622  0.003622  0.003431  0.003622         0.003431   0.004003
      6240.27       0.003306          0.000176      0.003264  0.003072  0.003264  0.003072  0.003456  0.003264  0.003456  0.003264  0.003648         0.003072   0.003648
      6252.74       0.002926          0.000169      0.002711  0.002905  0.003292  0.003098  0.002905  0.002905  0.002905  0.002711  0.002905         0.002711   0.003292
      6265.22       0.003193          0.000184      0.003518  0.003127  0.002932  0.002932  0.003127  0.003323  0.003323  0.003127  0.003323         0.002932   0.003518
      6277.70       0.003005          0.000155      0.003158  0.002961  0.003158  0.002764  0.003158  0.003158  0.002764  0.002961  0.002961         0.002764   0.003158
      6290.17       0.002992          0.000094      0.003191  0.002992  0.002992  0.002992  0.002992  0.002992  0.002992  0.002792  0.002992         0.002792   0.003191
      6302.65       0.002838          0.000200      0.002815  0.003016  0.002614  0.002614  0.003016  0.002815  0.003217  0.002614  0.002815         0.002614   0.003217
      6315.13       0.003090          0.000159      0.003045  0.003045  0.003045  0.003248  0.003248  0.003248  0.002842  0.002842  0.003248         0.002842   0.003248
      6327.61       0.002504          0.000161      0.002663  0.002663  0.002459  0.002254  0.002663  0.002254  0.002459  0.002459  0.002663         0.002254   0.002663
      6340.09       0.003125          0.000152      0.003102  0.003309  0.003102  0.002896  0.003102  0.003102  0.003309  0.002896  0.003309         0.002896   0.003309
      6352.58       0.002579          0.000241      0.002509  0.002300  0.002509  0.002509  0.002719  0.003137  0.002509  0.002300  0.002719         0.002300   0.003137
      6365.06       0.002630          0.000145      0.002748  0.002536  0.002536  0.002748  0.002748  0.002325  0.002748  0.002748  0.002536         0.002325   0.002748
      6377.55       0.002660          0.000178      0.002778  0.002778  0.002778  0.002351  0.002778  0.002778  0.002778  0.002565  0.002351         0.002351   0.002778
      6390.04       0.002424          0.000223      0.002376  0.002808  0.002376  0.002592  0.002160  0.002592  0.002160  0.002592  0.002160         0.002160   0.002808
      6402.52       0.002666          0.000200      0.002400  0.002836  0.002618  0.002618  0.002618  0.002618  0.003054  0.002400  0.002836         0.002400   0.003054
      6415.01       0.001961          0.000219      0.001765  0.001986  0.001765  0.001986  0.001986  0.001765  0.002427  0.002207  0.001765         0.001765   0.002427
      6427.51       0.001978          0.000164      0.002225  0.002002  0.002225  0.001780  0.002002  0.002002  0.002002  0.001780  0.001780         0.001780   0.002225
      6440.00       0.002042          0.000165      0.002241  0.002241  0.001793  0.002017  0.002241  0.002017  0.002017  0.001793  0.002017         0.001793   0.002241
      6452.49       0.002221          0.000269      0.002695  0.002022  0.002471  0.002246  0.002471  0.002246  0.001797  0.002022  0.002022         0.001797   0.002695
      6464.99       0.002347          0.000239      0.002247  0.002022  0.002247  0.002247  0.002247  0.002472  0.002921  0.002472  0.002247         0.002022   0.002921
      6477.48       0.001965          0.000176      0.001791  0.001791  0.002238  0.002014  0.002238  0.001791  0.002014  0.002014  0.001791         0.001791   0.002238
      6489.98       0.001957          0.000140      0.002007  0.002230  0.002007  0.002007  0.001784  0.001784  0.001784  0.002007  0.002007         0.001784   0.002230
      6502.48       0.001782          0.000257      0.001782  0.001782  0.001782  0.001337  0.002005  0.002005  0.001337  0.002005  0.002005         0.001337   0.002005
      6514.98       0.001772          0.000166      0.001573  0.001797  0.001797  0.001797  0.002022  0.001573  0.001573  0.002022  0.001797         0.001573   0.002022
      6527.48       0.001872          0.000179      0.002049  0.002049  0.001821  0.001821  0.002049  0.001594  0.002049  0.001821  0.001594         0.001594   0.002049
      6539.98       0.001496          0.000115      0.001393  0.001625  0.001393  0.001625  0.001393  0.001625  0.001393  0.001393  0.001625         0.001393   0.001625
      6552.49       0.001440          0.000174      0.001413  0.001413  0.001413  0.001178  0.001649  0.001649  0.001178  0.001649  0.001413         0.001178   0.001649
      6564.99       0.001751          0.000225      0.001910  0.001671  0.001910  0.002149  0.001910  0.001671  0.001433  0.001433  0.001671         0.001433   0.002149
      6577.50       0.001954          0.000136      0.002168  0.002168  0.001927  0.001927  0.001927  0.001686  0.001927  0.001927  0.001927         0.001686   0.002168
      6590.01       0.001296          0.000256      0.001215  0.001215  0.001702  0.000972  0.001215  0.001702  0.000972  0.001458  0.001215         0.000972   0.001702
      6602.52       0.001683          0.000214      0.001710  0.001710  0.001222  0.001955  0.001466  0.001955  0.001710  0.001710  0.001710         0.001222   0.001955
      6615.03       0.001772          0.000154      0.001963  0.001717  0.001963  0.001717  0.001472  0.001963  0.001717  0.001717  0.001717         0.001472   0.001963
      6627.54       0.001531          0.000102      0.001476  0.001722  0.001722  0.001476  0.001476  0.001476  0.001476  0.001476  0.001476         0.001476   0.001722
      6640.05       0.001424          0.000194      0.001479  0.001479  0.001479  0.001232  0.001479  0.001725  0.001479  0.001479  0.000986         0.000986   0.001725
      6652.57       0.001616          0.000236      0.001479  0.001479  0.001726  0.001233  0.001972  0.001972  0.001479  0.001479  0.001726         0.001233   0.001972
      6665.08       0.001397          0.000232      0.001479  0.001725  0.001725  0.001479  0.001479  0.001232  0.000986  0.001232  0.001232         0.000986   0.001725
      6677.60       0.001344          0.000205      0.001234  0.001481  0.001481  0.001234  0.001728  0.001234  0.001481  0.001234  0.000987         0.000987   0.001728
      6690.12       0.001401          0.000261      0.001483  0.001236  0.000989  0.001236  0.001978  0.001483  0.001236  0.001483  0.001483         0.000989   0.001978
      6702.63       0.001048          0.000281      0.001489  0.001241  0.000744  0.000496  0.000993  0.000993  0.000993  0.001241  0.001241         0.000496   0.001489
      6715.16       0.001134          0.000207      0.001244  0.001244  0.000746  0.001493  0.000995  0.000995  0.001244  0.001244  0.000995         0.000746   0.001493
      6727.68       0.001556          0.000229      0.001751  0.001251  0.002001  0.001251  0.001501  0.001751  0.001501  0.001501  0.001501         0.001251   0.002001
      6740.20       0.001395          0.000172      0.001256  0.001758  0.001256  0.001507  0.001507  0.001256  0.001256  0.001256  0.001507         0.001256   0.001758
      6752.72       0.001179          0.000168      0.001263  0.001011  0.001011  0.001263  0.001516  0.001011  0.001263  0.001011  0.001263         0.001011   0.001516
      6765.25       0.001468          0.000262      0.001270  0.001524  0.001016  0.001524  0.001778  0.001778  0.001778  0.001270  0.001270         0.001016   0.001778
      6777.78       0.001282          0.000209      0.001282  0.001282  0.001025  0.001538  0.001538  0.001538  0.001025  0.001025  0.001282         0.001025   0.001538
      6790.31       0.001233          0.000162      0.001291  0.001291  0.001033  0.001549  0.001033  0.001033  0.001291  0.001291  0.001291         0.001033   0.001549
      6802.83       0.001068          0.000227      0.001299  0.001299  0.000779  0.001039  0.001299  0.000779  0.001299  0.001039  0.000779         0.000779   0.001299
      6815.37       0.000774          0.000243      0.000774  0.000774  0.000516  0.001033  0.000774  0.000774  0.001033  0.001033  0.000258         0.000258   0.001033
      6827.90       0.000764          0.000208      0.000764  0.001019  0.000764  0.000509  0.000764  0.001019  0.000509  0.001019  0.000509         0.000509   0.001019
      6840.43       0.001256          0.000168      0.001256  0.001256  0.001005  0.001508  0.001256  0.001256  0.001256  0.001005  0.001508         0.001005   0.001508
      6852.97       0.001168          0.000167      0.001001  0.001251  0.001001  0.001001  0.001502  0.001251  0.001251  0.001251  0.001001         0.001001   0.001502
      6865.50       0.000924          0.000238      0.001260  0.000756  0.000756  0.001260  0.000756  0.000504  0.001008  0.001008  0.001008         0.000504   0.001260
      6878.04       0.001079          0.000106      0.001022  0.001022  0.001022  0.001278  0.001022  0.001022  0.001022  0.001278  0.001022         0.001022   0.001278
      6890.58       0.001434          0.000247      0.001806  0.001548  0.001548  0.001290  0.001806  0.001290  0.001290  0.001290  0.001032         0.001032   0.001806
      6903.12       0.000783          0.000246      0.001045  0.000783  0.000783  0.001045  0.000783  0.000783  0.001045  0.000522  0.000261         0.000261   0.001045
      6915.66       0.001149          0.000177      0.001326  0.001061  0.001061  0.001061  0.001326  0.000796  0.001326  0.001061  0.001326         0.000796   0.001326
      6928.20       0.001330          0.000200      0.001088  0.001632  0.001088  0.001360  0.001360  0.001632  0.001360  0.001360  0.001088         0.001088   0.001632
      6940.74       0.000999          0.000192      0.000843  0.000843  0.000843  0.001405  0.001124  0.001124  0.000843  0.001124  0.000843         0.000843   0.001405
      6953.29       0.001036          0.000278      0.000874  0.001456  0.000874  0.000874  0.001165  0.001165  0.000874  0.001456  0.000583         0.000583   0.001456
      6965.83       0.001072          0.000251      0.001206  0.001507  0.001206  0.001206  0.000904  0.000904  0.001206  0.000904  0.000603         0.000603   0.001507
      6978.38       0.001036          0.000207      0.000932  0.001243  0.001243  0.000932  0.000932  0.001243  0.001243  0.000622  0.000932         0.000622   0.001243
      6990.93       0.000992          0.000235      0.000638  0.001275  0.000956  0.000956  0.000956  0.001275  0.001275  0.000956  0.000638         0.000638   0.001275
      7003.48       0.001447          0.000311      0.000977  0.001628  0.001303  0.001954  0.001628  0.000977  0.001303  0.001628  0.001628         0.000977   0.001954
      7016.03       0.001440          0.000271      0.001329  0.001662  0.001662  0.001662  0.001662  0.001329  0.000997  0.001662  0.000997         0.000997   0.001662
      7028.58       0.000641          0.000250      0.001017  0.000678  0.000339  0.000678  0.001017  0.000678  0.000339  0.000678  0.000339         0.000339   0.001017
      7041.14       0.001074          0.000255      0.001036  0.001381  0.000691  0.001036  0.001381  0.001036  0.001381  0.001036  0.000691         0.000691   0.001381
      7053.69       0.000507          0.000336      0.000702  0.000000  0.000351  0.000702  0.000702  0.000702  0.001054  0.000351  0.000000         0.000000   0.001054
      7066.25       0.001264          0.000296      0.001066  0.001422  0.001422  0.001422  0.001066  0.001777  0.001066  0.000711  0.001422         0.000711   0.001777
      7078.81       0.001231          0.000245      0.001430  0.001073  0.001430  0.000715  0.001430  0.001430  0.001073  0.001430  0.001073         0.000715   0.001430
      7091.37       0.001864          0.000405      0.001785  0.002499  0.002142  0.002142  0.001785  0.001785  0.001071  0.002142  0.001428         0.001071   0.002499
      7103.93       0.001023          0.000352      0.000708  0.001063  0.001417  0.000708  0.001417  0.001063  0.001063  0.001417  0.000354         0.000354   0.001417
      7116.49       0.001283          0.000286      0.001050  0.001750  0.001750  0.001050  0.001400  0.001050  0.001400  0.001050  0.001050         0.001050   0.001750
      7129.05       0.000694          0.000283      0.000694  0.000694  0.000347  0.001041  0.000694  0.000347  0.000347  0.001041  0.001041         0.000347   0.001041
      7141.61       0.000655          0.000415      0.000347  0.000347  0.001040  0.001386  0.001040  0.000693  0.000347  0.000693  0.000000         0.000000   0.001386
      7154.18       0.000585          0.000234      0.001054  0.000351  0.000702  0.000702  0.000702  0.000351  0.000351  0.000351  0.000702         0.000351   0.001054
      7166.74       0.001084          0.000381      0.001446  0.001446  0.001446  0.001084  0.000361  0.000723  0.001446  0.001084  0.000723         0.000361   0.001446
      7179.31       0.001043          0.000344      0.000751  0.000751  0.001127  0.001503  0.001127  0.001127  0.000376  0.001503  0.001127         0.000376   0.001503
      7191.88       0.000832          0.000345      0.000394  0.000394  0.001182  0.000788  0.000788  0.000788  0.000788  0.001577  0.000788         0.000394   0.001577
      7204.45       0.001477          0.000345      0.001246  0.002077  0.001662  0.001662  0.000831  0.001246  0.001662  0.001662  0.001246         0.000831   0.002077
      7217.02       0.001409          0.000182      0.001312  0.001312  0.001312  0.001312  0.001749  0.001312  0.001312  0.001312  0.001749         0.001312   0.001749
      7229.60       0.001426          0.000338      0.001834  0.001376  0.001376  0.001376  0.001834  0.001834  0.000917  0.000917  0.001376         0.000917   0.001834
      7242.17       0.001377          0.000351      0.000953  0.000953  0.001907  0.001907  0.001430  0.001430  0.000953  0.001430  0.001430         0.000953   0.001907
      7254.75       0.002284          0.000400      0.001958  0.001958  0.001958  0.002937  0.001958  0.002447  0.002447  0.001958  0.002937         0.001958   0.002937
      7267.32       0.000055          0.000368      0.000000  0.000000  0.000000 -0.000499  0.000499 -0.000499  0.000499  0.000499  0.000000        -0.000499   0.000499
      7279.90       0.000781          0.000344      0.001004  0.001505  0.000502  0.000502  0.001004  0.000502  0.001004  0.000502  0.000502         0.000502   0.001505
      7292.48       0.001559          0.000369      0.001504  0.001003  0.001504  0.002005  0.002005  0.002005  0.001504  0.001504  0.001003         0.001003   0.002005
      7305.06       0.000831          0.000332      0.000997  0.000499  0.000997  0.000997  0.000499  0.000499  0.000499  0.000997  0.001496         0.000499   0.001496
      7317.64       0.001367          0.000387      0.001969  0.000984  0.000984  0.000984  0.001476  0.001476  0.001476  0.000984  0.001969         0.000984   0.001969
      7330.22       0.001305          0.000326      0.000978  0.001468  0.001957  0.001468  0.000978  0.001468  0.001468  0.000978  0.000978         0.000978   0.001957
      7342.81       0.001046          0.000365      0.000991  0.000991  0.000991  0.001981  0.000991  0.000991  0.000495  0.000991  0.000991         0.000495   0.001981
      7355.39       0.000401          0.000472      0.000000 -0.000515  0.000515  0.000515  0.001030  0.000515  0.000000  0.001030  0.000515        -0.000515   0.001030
      7367.98       0.001700          0.000654      0.001639  0.002186  0.000546  0.002732  0.001093  0.002186  0.002186  0.001093  0.001639         0.000546   0.002732
      7380.57       0.002198          0.000457      0.001745  0.002327  0.002327  0.002909  0.002909  0.001745  0.001745  0.002327  0.001745         0.001745   0.002909
      7393.16       0.000680          0.000451      0.000000  0.001224  0.000612  0.000000  0.000612  0.001224  0.000612  0.001224  0.000612         0.000000   0.001224
      7405.75       0.001402          0.000578      0.001262  0.000631  0.001893  0.001262  0.002524  0.001893  0.000631  0.001262  0.001262         0.000631   0.002524
      7418.34       0.001581          0.000618      0.001294  0.002587  0.001294  0.001940  0.000647  0.001940  0.001940  0.000647  0.001940         0.000647   0.002587
      7430.94       0.002069          0.000490      0.001995  0.001995  0.002660  0.002660  0.001995  0.001995  0.001330  0.002660  0.001330         0.001330   0.002660
      7443.53       0.001992          0.000508      0.001379  0.002069  0.002069  0.002759  0.002759  0.001379  0.001379  0.002069  0.002069         0.001379   0.002759
      7456.13      -0.000321          0.000495      0.000000 -0.000723  0.000000  0.000000  0.000000  0.000000 -0.001445  0.000000 -0.000723        -0.001445   0.000000
      7468.72       0.001843          0.000517      0.002262  0.002262  0.002262  0.002262  0.001508  0.002262  0.000754  0.001508  0.001508         0.000754   0.002262
      7481.32       0.001311          0.000829      0.000787  0.002360  0.000787  0.001574  0.002360  0.000787  0.002360  0.000787  0.000000         0.000000   0.002360
      7493.92       0.002078          0.000777      0.001626  0.002439  0.002439  0.001626  0.003252  0.001626  0.003252  0.000813  0.001626         0.000813   0.003252
      7506.52       0.001871          0.000867      0.003367  0.002525  0.000842  0.002525  0.000842  0.001684  0.002525  0.001684  0.000842         0.000842   0.003367
      7519.12       0.001939          0.000800      0.002618  0.003490  0.001745  0.001745  0.001745  0.001745  0.000873  0.002618  0.000873         0.000873   0.003490
      7531.73       0.002626          0.000903      0.003636  0.001818  0.001818  0.002727  0.002727  0.002727  0.004545  0.001818  0.001818         0.001818   0.004545
      7544.33       0.001377          0.000793      0.000953  0.001907  0.000953  0.002860  0.000953  0.001907  0.000953  0.001907  0.000000         0.000000   0.002860
      7556.94       0.002107          0.000873      0.002994  0.002994  0.001996  0.001996  0.002994  0.000998  0.000998  0.002994  0.000998         0.000998   0.002994
      7569.55       0.001742          0.000853      0.000000  0.002090  0.001045  0.002090  0.003135  0.002090  0.002090  0.002090  0.001045         0.000000   0.003135
      7582.15       0.003250          0.000885      0.003250  0.003250  0.003250  0.003250  0.003250  0.003250  0.001083  0.004334  0.004334         0.001083   0.004334
      7594.76       0.002595          0.001049      0.001112  0.003337  0.002225  0.004449  0.003337  0.002225  0.002225  0.001112  0.003337         0.001112   0.004449
      7607.37       0.002855          0.000765      0.003352  0.003352  0.002235  0.003352  0.002235  0.003352  0.001117  0.003352  0.003352         0.001117   0.003352
      7619.99       0.002727          0.000731      0.003202  0.003202  0.002134  0.003202  0.002134  0.002134  0.002134  0.002134  0.004269         0.002134   0.004269
      7632.60       0.001892          0.000892      0.002838  0.002838  0.001892  0.000946  0.002838  0.001892  0.001892  0.001892  0.000000         0.000000   0.002838
      7645.22       0.001922          0.000544      0.002595  0.001730  0.001730  0.002595  0.001730  0.001730  0.000865  0.002595  0.001730         0.000865   0.002595
      7657.83       0.001976          0.000798      0.002540  0.001693  0.000000  0.002540  0.002540  0.001693  0.002540  0.001693  0.002540         0.000000   0.002540
      7670.45      -0.000408          0.000628     -0.001835  0.000000  0.000000  0.000000  0.000000  0.000000 -0.000917  0.000000 -0.000917        -0.001835   0.000000
      7683.07       0.002805          0.000752      0.003293  0.002195  0.002195  0.004391  0.003293  0.002195  0.003293  0.002195  0.002195         0.002195   0.004391
      7695.69       0.002649          0.001396      0.001325  0.002649  0.001325  0.003974  0.002649  0.005298  0.001325  0.003974  0.001325         0.001325   0.005298
      7708.31       0.002189          0.000753      0.003030  0.003030  0.001515  0.003030  0.001515  0.001515  0.001515  0.003030  0.001515         0.001515   0.003030
      7720.93       0.003132          0.001824      0.003317  0.000000  0.003317  0.001658  0.003317  0.001658  0.006634  0.004975  0.003317         0.000000   0.006634
      7733.56       0.006293          0.000879      0.005310  0.007080  0.005310  0.007080  0.005310  0.007080  0.005310  0.007080  0.007080         0.005310   0.007080
      7746.18       0.002731          0.000939      0.001890  0.003781  0.001890  0.001890  0.001890  0.003781  0.001890  0.003781  0.003781         0.001890   0.003781
      7758.81       0.000665          0.001331      0.001996  0.001996  0.000000  0.000000  0.000000  0.001996 -0.001996  0.000000  0.001996        -0.001996   0.001996
      7771.44       0.002789          0.001708      0.002092  0.002092  0.002092  0.002092  0.000000  0.004184  0.006276  0.004184  0.002092         0.000000   0.006276
      7784.06       0.003411          0.001502      0.004386  0.004386  0.002193  0.004386  0.004386  0.004386  0.004386  0.002193  0.000000         0.000000   0.004386
      7796.69       0.003543          0.002177      0.002278  0.002278  0.004556  0.006834  0.006834  0.002278  0.002278  0.004556  0.000000         0.000000   0.006834
      7809.33       0.004684          0.002469      0.004684  0.004684  0.007026  0.002342  0.009368  0.004684  0.004684  0.000000  0.004684         0.000000   0.009368
      7821.96       0.000537          0.001518      0.000000  0.002415  0.000000  0.000000  0.002415  0.002415  0.000000 -0.002415  0.000000        -0.002415   0.002415
      7834.59       0.003284          0.002011      0.004926  0.007389  0.002463  0.000000  0.002463  0.002463  0.002463  0.004926  0.002463         0.000000   0.007389
      7847.23       0.000840          0.001679      0.000000  0.002519  0.000000  0.000000  0.002519  0.002519 -0.002519  0.000000  0.002519        -0.002519   0.002519
      7859.87       0.001692          0.002072      0.002538  0.002538  0.000000  0.002538  0.002538  0.002538 -0.002538  0.005076  0.000000        -0.002538   0.005076
      7872.50       0.002785          0.002193      0.005013  0.002506  0.000000  0.002506  0.005013  0.005013  0.000000  0.000000  0.005013         0.000000   0.005013
      7885.14       0.003506          0.002320      0.002427  0.004854  0.000000  0.004854  0.004854  0.002427  0.007282  0.004854  0.000000         0.000000   0.007282
      7897.78       0.002087          0.001730      0.000000  0.000000  0.002347  0.002347  0.004695  0.002347  0.002347  0.004695  0.000000         0.000000   0.004695
      7910.42      -0.002320          0.002446      0.000000 -0.004640 -0.002320  0.000000 -0.004640  0.002320 -0.004640 -0.004640 -0.002320        -0.004640   0.002320
      7923.07       0.003660          0.002508      0.002353  0.000000  0.002353  0.004706  0.002353  0.009412  0.004706  0.004706  0.002353         0.000000   0.009412
      7935.71       0.003532          0.002033      0.000000  0.002445  0.002445  0.002445  0.007335  0.004890  0.004890  0.004890  0.002445         0.000000   0.007335
      7948.36       0.005892          0.001684      0.005051  0.002525  0.007576  0.005051  0.007576  0.007576  0.005051  0.005051  0.007576         0.002525   0.007576
      7961.00       0.001122          0.002100      0.000000  0.000000  0.005051  0.000000  0.002525  0.000000  0.002525  0.002525 -0.002525        -0.002525   0.005051
      7973.65       0.005213          0.001820      0.004938  0.007407  0.002469  0.007407  0.004938  0.007407  0.004938  0.004938  0.002469         0.002469   0.007407
      7986.30       0.003997          0.001958      0.004796  0.004796  0.004796  0.007194  0.004796  0.004796  0.000000  0.002398  0.002398         0.000000   0.007194
      7998.95       0.001313          0.002519      0.002364 -0.002364  0.002364  0.002364  0.004728  0.004728  0.000000  0.000000 -0.002364        -0.002364   0.004728
      8011.60      -0.000528          0.000988      0.000000 -0.002375  0.000000  0.000000  0.000000  0.000000 -0.002375  0.000000  0.000000        -0.002375   0.000000
      8024.26       0.002658          0.001763      0.002392  0.004785  0.002392  0.004785  0.000000  0.002392  0.004785  0.000000  0.002392         0.000000   0.004785
      8036.91      -0.000270          0.002129     -0.002433  0.002433  0.000000  0.000000  0.002433 -0.002433  0.002433 -0.002433 -0.002433        -0.002433   0.002433
      8049.57       0.000815          0.001630      0.002445  0.000000  0.000000  0.002445  0.000000  0.002445  0.000000  0.002445 -0.002445        -0.002445   0.002445
      8062.22       0.003794          0.001671      0.002439  0.002439  0.004878  0.004878  0.007317  0.002439  0.002439  0.002439  0.004878         0.002439   0.007317
      8074.88       0.003447          0.002281      0.000000  0.004773  0.007160  0.004773  0.002387  0.004773  0.002387  0.004773  0.000000         0.000000   0.007160
      8087.54       0.001289          0.001589      0.002320  0.000000  0.000000  0.000000  0.004640  0.002320  0.000000  0.000000  0.002320         0.000000   0.004640
      8100.20       0.001732          0.001400      0.002227  0.002227  0.002227  0.000000  0.000000  0.004454  0.002227  0.000000  0.002227         0.000000   0.004454
      8112.87       0.001658          0.001954      0.000000  0.002132 -0.002132  0.002132  0.004264  0.002132  0.002132  0.004264  0.000000        -0.002132   0.004264
      8125.53       0.003824          0.001147      0.002024  0.006073  0.002024  0.004049  0.004049  0.004049  0.004049  0.004049  0.004049         0.002024   0.006073
      8138.19       0.000000          0.001567      0.001919  0.000000 -0.001919  0.001919 -0.001919  0.000000 -0.001919  0.001919  0.000000        -0.001919   0.001919
      8150.86       0.000997          0.001493      0.000000  0.001795  0.001795  0.001795  0.001795  0.000000 -0.001795  0.003591  0.000000        -0.001795   0.003591
      8163.53       0.002723          0.001541      0.001634  0.003268  0.003268  0.003268  0.001634  0.001634  0.004902  0.004902  0.000000         0.000000   0.004902
      8176.20      -0.000951          0.001504     -0.001427 -0.002853 -0.001427  0.000000  0.001427 -0.002853 -0.001427  0.001427 -0.001427        -0.002853   0.001427
      8188.87       0.002888          0.000940      0.004520  0.002260  0.002260  0.003390  0.003390  0.003390  0.003390  0.002260  0.001130         0.001130   0.004520
      8201.54       0.000337          0.000377      0.000759  0.000759  0.000759  0.000000  0.000000  0.000000  0.000000  0.000000  0.000759         0.000000   0.000759
      8214.21      -0.000624          0.000413     -0.000432  0.000000 -0.000432 -0.001297 -0.000432 -0.000432 -0.000865 -0.001297 -0.000432        -0.001297   0.000000
      8226.88      -0.000091          0.000223     -0.000547  0.000000 -0.000273  0.000000  0.000000  0.000273  0.000000  0.000000 -0.000273        -0.000547   0.000273
      8239.56      -0.000047          0.000134      0.000000  0.000213 -0.000213  0.000000  0.000000 -0.000213 -0.000213  0.000000  0.000000        -0.000213   0.000213
      8252.23       0.000175          0.000196      0.000197  0.000395  0.000197  0.000000  0.000395  0.000395  0.000197  0.000000 -0.000197        -0.000197   0.000395
      8264.91       0.000023          0.000154      0.000000 -0.000209  0.000000  0.000000  0.000209  0.000209  0.000000  0.000209 -0.000209        -0.000209   0.000209
      8277.59      -0.000000          0.000322      0.000242  0.000242  0.000000  0.000484  0.000242 -0.000484 -0.000484 -0.000242  0.000000        -0.000484   0.000484
      8290.27       0.000412          0.000304      0.000285  0.000570  0.000855  0.000855  0.000285  0.000000  0.000570  0.000000  0.000285         0.000000   0.000855
      8302.95       0.000267          0.000421      0.000343 -0.000343  0.000343  0.000686  0.001028  0.000000  0.000343  0.000343 -0.000343        -0.000343   0.001028
      8315.63      -0.000329          0.000266     -0.000423 -0.000846  0.000000 -0.000423 -0.000423  0.000000 -0.000423  0.000000 -0.000423        -0.000846   0.000000
      8328.32       0.000617          0.000436      0.000463  0.000926  0.000463  0.000926  0.001389  0.000926  0.000463  0.000000  0.000000         0.000000   0.001389
      8341.00       0.000685          0.000301      0.000440  0.000440  0.001320  0.000880  0.000880  0.000440  0.000440  0.000880  0.000440         0.000440   0.001320
      8353.69      -0.000093          0.000264     -0.000420  0.000000  0.000000 -0.000420  0.000000 -0.000420  0.000420  0.000000  0.000000        -0.000420   0.000420
      8366.38       0.000146          0.000292      0.000438 -0.000438  0.000000  0.000000  0.000438  0.000000  0.000000  0.000438  0.000438        -0.000438   0.000438
      8379.07       0.000170          0.000339      0.000000  0.000509  0.000509  0.000509  0.000509  0.000000 -0.000509  0.000000  0.000000        -0.000509   0.000509
      8391.76       0.000065          0.000432      0.000000 -0.000586  0.000586  0.000586  0.000586  0.000000  0.000000 -0.000586  0.000000        -0.000586   0.000586
      8404.45       0.001299          0.000612      0.001846  0.001231  0.001231  0.001231  0.001231  0.001231  0.002462  0.000000  0.001231         0.000000   0.002462
      8417.14       0.001320          0.000547      0.000625  0.001251  0.001876  0.001251  0.001876  0.001876  0.001876  0.000625  0.000625         0.000625   0.001876
      8429.83       0.000000          0.000444      0.000000  0.000666  0.000000  0.000666  0.000000  0.000000  0.000000 -0.000666 -0.000666        -0.000666   0.000666
      8442.53      -0.000259          0.000635      0.000000  0.000000  0.000000  0.000000 -0.000778  0.000778 -0.000778  0.000000 -0.001555        -0.001555   0.000778
      8455.23      -0.000733          0.000741     -0.000943  0.000000 -0.000943  0.000000 -0.001885  0.000000  0.000000 -0.001885 -0.000943        -0.001885   0.000000
      8467.92       0.000844          0.000994      0.000000  0.001085 -0.001085  0.002169  0.001085  0.000000  0.001085  0.002169  0.001085        -0.001085   0.002169
      8480.62       0.000782          0.001236      0.000000  0.002345 -0.001172  0.001172  0.001172  0.001172  0.001172  0.002345 -0.001172        -0.001172   0.002345
      8493.32       0.000135          0.001205     -0.001212  0.000000  0.000000  0.002424  0.001212  0.000000 -0.001212 -0.001212  0.001212        -0.001212   0.002424
      8506.02       0.001899          0.001015      0.002442  0.001221  0.002442  0.002442  0.003663  0.000000  0.001221  0.001221  0.002442         0.000000   0.003663
      8518.73       0.001211          0.000571      0.001211  0.002421  0.000000  0.001211  0.001211  0.001211  0.001211  0.001211  0.001211         0.000000   0.002421
      8531.43       0.000265          0.000935     -0.001190  0.001190 -0.001190  0.000000  0.001190  0.001190  0.001190  0.000000  0.000000        -0.001190   0.001190
      8544.14      -0.000129          0.000855      0.000000  0.000000 -0.001160  0.001160  0.001160  0.000000 -0.001160 -0.001160  0.000000        -0.001160   0.001160
      8556.84       0.001120          0.001180     -0.001120  0.000000  0.002240  0.003359  0.001120  0.001120  0.001120  0.001120  0.001120        -0.001120   0.003359
      8569.55       0.000958          0.000794      0.002155  0.001078  0.000000  0.001078  0.001078  0.001078  0.002155  0.000000  0.000000         0.000000   0.002155
      8582.26       0.001724          0.000975      0.002068  0.002068  0.001034  0.003102  0.003102  0.002068  0.001034  0.001034  0.000000         0.000000   0.003102
      8594.97      -0.000110          0.001186     -0.000991 -0.000991 -0.001982  0.000991  0.000000  0.001982  0.000000 -0.000991  0.000991        -0.001982   0.001982
      8607.68      -0.000632          0.000774      0.000000  0.000000 -0.001896  0.000000  0.000000  0.000000 -0.000948 -0.000948 -0.001896        -0.001896   0.000000
      8620.40      -0.000302          0.000739     -0.000905 -0.000905 -0.000905  0.000000  0.000905  0.000000 -0.000905 -0.000905  0.000905        -0.000905   0.000905
      8633.11      -0.000095          0.000849     -0.000854 -0.000854  0.000000  0.000000  0.001708  0.000854 -0.000854 -0.000854  0.000000        -0.000854   0.001708
      8645.83       0.000618          0.000624      0.001589  0.000794  0.000000  0.000794  0.000794  0.000000  0.000000  0.001589  0.000000         0.000000   0.001589
      8658.54       0.000732          0.000597      0.001463  0.001463  0.000732  0.000732  0.000000  0.001463  0.000000  0.000732  0.000000         0.000000   0.001463
      8671.26       0.000447          0.000774      0.000000  0.000000  0.002012  0.000000  0.001341  0.000671  0.000000  0.000671 -0.000671        -0.000671   0.002012
      8683.98       0.000205          0.000502      0.001230  0.000000  0.000000  0.000000  0.000615  0.000000 -0.000615  0.000615  0.000000        -0.000615   0.001230
      8696.70       0.000000          0.000535      0.000000  0.000000 -0.000567  0.001134  0.000000 -0.000567  0.000567 -0.000567  0.000000        -0.000567   0.001134
      8709.43      -0.000116          0.000216     -0.000521  0.000000  0.000000  0.000000  0.000000  0.000000  0.000000  0.000000 -0.000521        -0.000521   0.000000
      8722.15      -0.001010          0.000353     -0.000957 -0.001435 -0.000957 -0.001435 -0.001435 -0.000478 -0.000957 -0.000478 -0.000957        -0.001435  -0.000478
      8734.87       0.000000          0.000543      0.000000  0.000000  0.000435  0.000000  0.000000 -0.000870 -0.000870  0.000435  0.000870        -0.000870   0.000870
      8747.60       0.000522          0.000185      0.000392  0.000784  0.000392  0.000784  0.000392  0.000392  0.000784  0.000392  0.000392         0.000392   0.000784
      8760.33       0.000456          0.000279      0.000342  0.000684  0.000684  0.000684  0.000684  0.000000  0.000684  0.000342  0.000000         0.000000   0.000684
      8773.06      -0.000092          0.000130     -0.000276  0.000000 -0.000276 -0.000276  0.000000  0.000000  0.000000  0.000000  0.000000        -0.000276   0.000000
      8785.78       0.000148          0.000175      0.000000  0.000382  0.000000  0.000191  0.000191  0.000191  0.000191 -0.000191  0.000382        -0.000191   0.000382
      8798.52       0.000091          0.000074      0.000117  0.000000  0.000000  0.000235  0.000000  0.000117  0.000117  0.000117  0.000117         0.000000   0.000235
      8811.25       0.000173          0.000049      0.000233  0.000233  0.000155  0.000155  0.000155  0.000155  0.000233  0.000155  0.000078         0.000078   0.000233
      8823.98       0.000040          0.000029      0.000000  0.000061  0.000061  0.000000  0.000061  0.000061  0.000061  0.000061  0.000000         0.000000   0.000061
      8836.72       0.000000          0.000027      0.000000  0.000000 -0.000056  0.000000  0.000000  0.000056  0.000000  0.000000  0.000000        -0.000056   0.000056
      8849.45       0.000014          0.000049      0.000062 -0.000062  0.000000  0.000000  0.000062  0.000000  0.000062 -0.000062  0.000062        -0.000062   0.000062
      8862.19       0.000026          0.000053      0.000079  0.000000 -0.000079  0.000079  0.000079  0.000000  0.000000  0.000000  0.000079        -0.000079   0.000079
      8874.93       0.000083          0.000067      0.000000  0.000106  0.000106  0.000106  0.000106  0.000213  0.000000  0.000106  0.000000         0.000000   0.000213
      8887.67      -0.000000          0.000114      0.000000  0.000140  0.000140  0.000000  0.000140 -0.000140 -0.000140  0.000000 -0.000140        -0.000140   0.000140
      8900.41       0.000093          0.000114      0.000000  0.000167  0.000000  0.000000  0.000334  0.000000  0.000167  0.000000  0.000167         0.000000   0.000334
      8913.15       0.000039          0.000137      0.000000  0.000000 -0.000174  0.000174 -0.000174  0.000174  0.000000  0.000174  0.000174        -0.000174   0.000174
      8925.90       0.000374          0.000127      0.000306  0.000612  0.000306  0.000459  0.000306  0.000459  0.000153  0.000459  0.000306         0.000153   0.000612
      8938.64      -0.000150          0.000077     -0.000246 -0.000123 -0.000123 -0.000123  0.000000 -0.000123 -0.000123 -0.000246 -0.000246        -0.000246   0.000000
      8951.39       0.000127          0.000095      0.000104  0.000000  0.000000  0.000104  0.000311  0.000207  0.000104  0.000207  0.000104         0.000000   0.000311
      8964.14      -0.000130          0.000065     -0.000195 -0.000098 -0.000195 -0.000098  0.000000 -0.000098 -0.000098 -0.000195 -0.000195        -0.000195   0.000000
      8976.88      -0.000023          0.000066      0.000000  0.000000 -0.000105  0.000105  0.000000 -0.000105 -0.000105  0.000000  0.000000        -0.000105   0.000105
      8989.63       0.000165          0.000083      0.000124  0.000124  0.000000  0.000248  0.000248  0.000248  0.000124  0.000124  0.000248         0.000000   0.000248
      9002.39       0.000000          0.000098      0.000000 -0.000146  0.000000  0.000146  0.000000 -0.000146  0.000000  0.000000  0.000146        -0.000146   0.000146
      9015.14       0.000083          0.000124      0.000298  0.000149  0.000149  0.000000  0.000000  0.000149  0.000000  0.000149 -0.000149        -0.000149   0.000298
      9027.89       0.000080          0.000126      0.000000  0.000239  0.000239  0.000000  0.000120  0.000000  0.000239 -0.000120  0.000000        -0.000120   0.000239
      9040.65       0.000178          0.000069      0.000282  0.000188  0.000188  0.000188  0.000188  0.000094  0.000282  0.000094  0.000094         0.000094   0.000282
      9053.40      -0.000028          0.000068     -0.000083  0.000083  0.000000  0.000083  0.000000 -0.000083 -0.000083 -0.000083 -0.000083        -0.000083   0.000083
      9066.16       0.000048          0.000092     -0.000086  0.000173  0.000000  0.000086  0.000086  0.000173 -0.000086  0.000086  0.000000        -0.000086   0.000173
      9078.92       0.000048          0.000090      0.000216  0.000000 -0.000108  0.000000  0.000108  0.000108  0.000000  0.000108  0.000000        -0.000108   0.000216
      9091.68       0.000049          0.000097      0.000146  0.000000 -0.000146  0.000000  0.000146  0.000146  0.000000  0.000000  0.000146        -0.000146   0.000146
      9104.44      -0.000081          0.000151     -0.000364  0.000000 -0.000182  0.000000 -0.000182 -0.000182  0.000000  0.000000  0.000182        -0.000364   0.000182
      9117.21      -0.000041          0.000144     -0.000184  0.000000  0.000184 -0.000184  0.000000  0.000000  0.000184 -0.000184 -0.000184        -0.000184   0.000184
      9129.97       0.000016          0.000141     -0.000142  0.000000  0.000284  0.000142 -0.000142  0.000000 -0.000142  0.000142  0.000000        -0.000142   0.000284
      9142.74      -0.000043          0.000066      0.000000  0.000000 -0.000096  0.000096  0.000000 -0.000096 -0.000096 -0.000096 -0.000096        -0.000096   0.000096
      9155.50       0.000078          0.000062      0.000141  0.000141  0.000071  0.000000  0.000141  0.000141  0.000071  0.000000  0.000000         0.000000   0.000141
      9168.27      -0.000060          0.000094     -0.000181  0.000121 -0.000181  0.000000  0.000000 -0.000060 -0.000121  0.000000 -0.000121        -0.000181   0.000121
      9181.04       0.000115          0.000053      0.000182  0.000122  0.000122  0.000000  0.000122  0.000182  0.000061  0.000122  0.000122         0.000000   0.000182
      9193.81       0.000103          0.000049      0.000071  0.000214  0.000143  0.000071  0.000071  0.000071  0.000143  0.000071  0.000071         0.000071   0.000214
      9206.58       0.000010          0.000091      0.000000 -0.000183  0.000091 -0.000091  0.000091  0.000091  0.000091  0.000000  0.000000        -0.000183   0.000091
      9219.36      -0.000079          0.000079      0.000000 -0.000118 -0.000236  0.000000 -0.000118 -0.000118 -0.000118  0.000000  0.000000        -0.000236   0.000000
      9232.13      -0.000213          0.000101     -0.000147 -0.000147 -0.000147 -0.000147 -0.000147 -0.000295 -0.000442 -0.000147 -0.000295        -0.000442  -0.000147
      9244.91       0.000137          0.000162      0.000353  0.000000  0.000176  0.000176  0.000176  0.000353  0.000176  0.000000 -0.000176        -0.000176   0.000353
      9257.68       0.000091          0.000218      0.000410  0.000000  0.000000  0.000205  0.000205  0.000000 -0.000410  0.000205  0.000205        -0.000410   0.000410
      9270.46      -0.000206          0.000171     -0.000232  0.000000 -0.000464 -0.000232  0.000000  0.000000 -0.000232 -0.000232 -0.000464        -0.000464   0.000000
      9283.24       0.000113          0.000174      0.000000  0.000000  0.000254  0.000254  0.000000 -0.000254  0.000254  0.000254  0.000254        -0.000254   0.000254
      9296.02       0.000119          0.000184      0.000268  0.000268  0.000268 -0.000268  0.000000  0.000268  0.000000  0.000268  0.000000        -0.000268   0.000268
      9308.80       0.000183          0.000258      0.000548  0.000274  0.000274  0.000000  0.000548  0.000000  0.000000 -0.000274  0.000274        -0.000274   0.000548
      9321.59      -0.000276          0.000130     -0.000276 -0.000276 -0.000276 -0.000276  0.000000 -0.000276 -0.000552 -0.000276 -0.000276        -0.000552   0.000000
      9334.37       0.000458          0.000224      0.000275  0.000549  0.000275  0.000824  0.000549  0.000275  0.000275  0.000824  0.000275         0.000275   0.000824
      9347.16       0.000299          0.000235      0.000000  0.000538  0.000269  0.000269  0.000538  0.000000  0.000538  0.000538  0.000000         0.000000   0.000538
      9359.94      -0.000142          0.000212      0.000000  0.000000  0.000000  0.000000 -0.000511  0.000000 -0.000511 -0.000256  0.000000        -0.000511   0.000000
      9372.73       0.000369          0.000197      0.000474  0.000474  0.000474  0.000237  0.000711  0.000237  0.000000  0.000237  0.000474         0.000000   0.000711
      9385.52       0.000417          0.000069      0.000442  0.000442  0.000442  0.000442  0.000442  0.000221  0.000442  0.000442  0.000442         0.000221   0.000442
      9398.31      -0.000024          0.000186      0.000000  0.000000  0.000000  0.000212  0.000000 -0.000425  0.000212  0.000000 -0.000212        -0.000425   0.000212
      9411.11      -0.000095          0.000178      0.000000  0.000214  0.000000 -0.000214 -0.000427  0.000000 -0.000214  0.000000 -0.000214        -0.000427   0.000214
      9423.90       0.000123          0.000151      0.000000  0.000000  0.000221  0.000221  0.000442  0.000221  0.000000  0.000000  0.000000         0.000000   0.000442
      9436.69       0.000152          0.000215      0.000228  0.000456 -0.000228  0.000228  0.000228 -0.000228  0.000228  0.000228  0.000228        -0.000228   0.000456
      9449.49       0.000538          0.000188      0.000461  0.000230  0.000691  0.000921  0.000461  0.000461  0.000691  0.000461  0.000461         0.000230   0.000921
      9462.29       0.000075          0.000238      0.000000  0.000000  0.000000  0.000226  0.000452 -0.000226  0.000000  0.000452 -0.000226        -0.000226   0.000452
      9475.09      -0.000096          0.000147     -0.000430  0.000000  0.000000  0.000000  0.000000  0.000000 -0.000215  0.000000 -0.000215        -0.000430   0.000000
      9487.89      -0.000022          0.000148      0.000000  0.000000 -0.000201  0.000201 -0.000201  0.000000  0.000201  0.000000 -0.000201        -0.000201   0.000201
      9500.69      -0.000021          0.000205      0.000000  0.000187  0.000187  0.000187 -0.000187  0.000187 -0.000187 -0.000373 -0.000187        -0.000373   0.000187
      9513.49      -0.000197          0.000176     -0.000354 -0.000177 -0.000177  0.000000 -0.000177  0.000000 -0.000354  0.000000 -0.000531        -0.000531   0.000000
      9526.29      -0.000136          0.000110      0.000000  0.000000  0.000000 -0.000174 -0.000174 -0.000174 -0.000349 -0.000174 -0.000174        -0.000349   0.000000
      9539.10       0.000201          0.000158      0.000181  0.000361  0.000361  0.000181  0.000361  0.000181 -0.000181  0.000181  0.000181        -0.000181   0.000361
      9551.90       0.000130          0.000130      0.000195  0.000195 -0.000195  0.000000  0.000195  0.000195  0.000195  0.000195  0.000195        -0.000195   0.000195
      9564.71       0.000217          0.000205      0.000000  0.000000  0.000000  0.000434  0.000651  0.000217  0.000217  0.000217  0.000217         0.000000   0.000651
      9577.52      -0.000108          0.000166      0.000000  0.000000 -0.000243 -0.000485  0.000000  0.000000  0.000000 -0.000243  0.000000        -0.000485   0.000000
      9590.33      -0.000239          0.000296     -0.000538 -0.000269 -0.000269 -0.000269 -0.000269  0.000538 -0.000538 -0.000269 -0.000269        -0.000538   0.000538
      9603.14       0.000097          0.000238     -0.000291  0.000291  0.000000  0.000000  0.000000  0.000582  0.000000  0.000291  0.000000        -0.000291   0.000582
      9615.96      -0.000034          0.000338      0.000000  0.000000  0.000307 -0.000307 -0.000307  0.000000  0.000615 -0.000615  0.000000        -0.000615   0.000615
      9628.77      -0.000245          0.000247     -0.000629 -0.000314  0.000000  0.000000 -0.000314 -0.000314  0.000000  0.000000 -0.000629        -0.000629   0.000000
      9641.58      -0.000104          0.000208      0.000000  0.000000 -0.000311  0.000311  0.000000 -0.000311 -0.000311 -0.000311  0.000000        -0.000311   0.000311
      9654.40      -0.000330          0.000168     -0.000593 -0.000297  0.000000 -0.000297 -0.000297 -0.000297 -0.000297 -0.000297 -0.000593        -0.000593   0.000000
      9667.22       0.000121          0.000136      0.000000  0.000000  0.000273  0.000273  0.000273  0.000273  0.000000  0.000000  0.000000         0.000000   0.000273
      9680.04       0.000000          0.000284     -0.000492  0.000000 -0.000246 -0.000246  0.000492  0.000000  0.000246  0.000246  0.000000        -0.000492   0.000492
      9692.86       0.000123          0.000151      0.000000  0.000000  0.000221  0.000221  0.000441  0.000000  0.000000  0.000221  0.000000         0.000000   0.000441
      9705.68       0.000179          0.000148      0.000201  0.000402  0.000000  0.000402  0.000201  0.000000  0.000201  0.000000  0.000201         0.000000   0.000402
      9718.50       0.000209          0.000187     -0.000188  0.000188  0.000188  0.000376  0.000376  0.000188  0.000376  0.000376  0.000000        -0.000188   0.000376
      9731.33       0.000099          0.000170      0.000178  0.000000  0.000356  0.000000  0.000000 -0.000178  0.000356  0.000000  0.000178        -0.000178   0.000356
      9744.15       0.000000          0.000135     -0.000166  0.000000 -0.000166  0.000166  0.000000  0.000166  0.000166  0.000000 -0.000166        -0.000166   0.000166
      9756.98       0.000078          0.000149      0.000140  0.000140  0.000140  0.000280  0.000000  0.000140 -0.000280  0.000000  0.000140        -0.000280   0.000280
      9769.81       0.000057          0.000070      0.000000  0.000102  0.000102 -0.000102  0.000102  0.000102  0.000102  0.000000  0.000102        -0.000102   0.000102
      9782.64      -0.000024          0.000059      0.000000  0.000073 -0.000145  0.000000 -0.000073  0.000000  0.000000  0.000000 -0.000073        -0.000145   0.000073
      9795.47       0.000013          0.000037      0.000000  0.000000  0.000059  0.000000  0.000059 -0.000059  0.000059  0.000000  0.000000        -0.000059   0.000059
      9808.30      -0.000068          0.000051     -0.000111  0.000056 -0.000111 -0.000056 -0.000056 -0.000056 -0.000111 -0.000056 -0.000111        -0.000111   0.000056
      9821.13      -0.000028          0.000061     -0.000063  0.000000 -0.000127 -0.000063  0.000063  0.000000 -0.000063  0.000063 -0.000063        -0.000127   0.000063
      9833.97       0.000102          0.000053      0.000084  0.000084  0.000000  0.000168  0.000168  0.000084  0.000168  0.000084  0.000084         0.000000   0.000168
      9846.80       0.000104          0.000066      0.000117  0.000000  0.000117  0.000117  0.000117  0.000000  0.000117  0.000117  0.000234         0.000000   0.000234
      9859.64       0.000134          0.000111      0.000000  0.000302  0.000000  0.000151  0.000151  0.000000  0.000151  0.000302  0.000151         0.000000   0.000302
      9872.48      -0.000036          0.000147      0.000000  0.000000 -0.000160  0.000000  0.000000  0.000160  0.000160 -0.000320 -0.000160        -0.000320   0.000160
      9885.32       0.000074          0.000091      0.000133  0.000266  0.000133  0.000000  0.000133  0.000000  0.000000  0.000000  0.000000         0.000000   0.000266
      9898.16       0.000105          0.000070      0.000189  0.000000  0.000094  0.000189  0.000094  0.000189  0.000094  0.000000  0.000094         0.000000   0.000189
      9911.00       0.000101          0.000067      0.000000  0.000070  0.000140  0.000070  0.000140  0.000140  0.000140  0.000210  0.000000         0.000000   0.000210
      9923.84       0.000065          0.000033      0.000059  0.000059  0.000059  0.000000  0.000059  0.000059  0.000118  0.000118  0.000059         0.000000   0.000118
      9936.69       0.000013          0.000045      0.000000  0.000058 -0.000058  0.000058  0.000000  0.000000  0.000058  0.000058 -0.000058        -0.000058   0.000058
      9949.53      -0.000022          0.000031      0.000000 -0.000066  0.000000 -0.000066  0.000000 -0.000066  0.000000  0.000000  0.000000        -0.000066   0.000000
      9962.38       0.000133          0.000081      0.000085  0.000170  0.000000  0.000170  0.000170  0.000170  0.000256  0.000000  0.000170         0.000000   0.000256
      9975.23       0.000141          0.000072      0.000000  0.000115  0.000115  0.000230  0.000115  0.000230  0.000115  0.000115  0.000230         0.000000   0.000230
      9988.08      -0.000069          0.000128     -0.000154 -0.000154  0.000154 -0.000154  0.000000 -0.000154  0.000154 -0.000154 -0.000154        -0.000154   0.000154
#
